  STEP   TOTAL TIME             LOCATION OF OBSERVATION POINTS (K,I,J)
                      1  16  16
     1    0.0000        0.0000    
     2    36.500        37.942    
     3    73.000        60.326    
     4    109.50        73.697    
     5    146.00        81.821    
     6    182.50        86.869    
     7    219.00        90.097    
     8    255.50        92.233    
     9    292.00        93.703    
    10    328.50        94.756    
    11    365.00        95.541    
    12    401.50        96.148    
    13    438.00        96.632    
    14    474.50        97.027    
    15    511.00        97.357    
    16    547.50        97.637    
    17    584.00        97.877    
    18    620.50        98.084    
    19    657.00        98.265    
    20    693.50        98.423    
    21    730.00        98.563    
    22    766.50        98.687    
    23    803.00        98.796    
    24    839.50        98.894    
    25    876.00        98.982    
    26    912.50        99.061    
     1    949.00        94.203    
     2    985.50        89.710    
     3    1022.0        85.526    
     4    1058.5        81.612    
     5    1095.0        77.936    
     6    1131.5        74.477    
     7    1168.0        71.215    
     8    1204.5        68.134    
     9    1241.0        65.220    
    10    1277.5        62.460    
    11    1314.0        59.845    
    12    1350.5        57.365    
    13    1387.0        55.009    
    14    1423.5        52.772    
    15    1460.0        50.644    
    16    1496.5        48.620    
    17    1533.0        46.693    
    18    1569.5        44.858    
    19    1606.0        43.109    
    20    1642.5        41.441    
    21    1679.0        39.850    
    22    1715.5        38.331    
    23    1752.0        36.881    
    24    1788.5        35.496    
    25    1825.0        34.171    
    26    1861.5        32.906    
    27    1898.0        31.695    
    28    1934.5        30.536    
    29    1971.0        29.427    
    30    2007.5        28.365    
    31    2044.0        27.348    
    32    2080.5        26.373    
    33    2117.0        25.439    
    34    2153.5        24.543    
    35    2190.0        23.684    
    36    2226.5        22.860    
    37    2263.0        22.069    
    38    2299.5        21.310    
    39    2336.0        20.581    
    40    2372.5        19.881    
    41    2409.0        19.208    
    42    2445.5        18.562    
    43    2482.0        17.941    
    44    2518.5        17.343    
    45    2555.0        16.769    
    46    2591.5        16.216    
    47    2628.0        15.685    
    48    2664.5        15.173    
    49    2701.0        14.681    
    50    2737.5        14.206    
    51    2774.0        13.750    
    52    2810.5        13.310    
    53    2847.0        12.886    
    54    2883.5        12.478    
    55    2920.0        12.084    
    56    2956.5        11.705    
    57    2993.0        11.339    
    58    3029.5        10.987    
    59    3066.0        10.646    
    60    3102.5        10.318    
    61    3139.0        10.001    
    62    3175.5        9.6957    
    63    3212.0        9.4007    
    64    3248.5        9.1159    
    65    3285.0        8.8409    
    66    3321.5        8.5753    
    67    3358.0        8.3187    
    68    3394.5        8.0708    
    69    3431.0        7.8314    
    70    3467.5        7.5999    
    71    3504.0        7.3762    
    72    3540.5        7.1600    
    73    3577.0        6.9509    
    74    3613.5        6.7487    
    75    3650.0        6.5532    
