  STEP   TOTAL TIME             LOCATION OF OBSERVATION POINTS (K,I,J)
                      1  11   7
     1   7.71837E+05   2.00934E-06
     2   1.54367E+06   2.07732E-05
     3   2.31551E+06   1.11591E-04
     4   3.08735E+06   4.19658E-04
     5   3.85918E+06   1.24302E-03
     6   4.63102E+06   3.09668E-03
     7   5.40286E+06   6.74450E-03
     8   6.17470E+06   1.31917E-02
     9   6.94653E+06   2.36227E-02
    10   7.71837E+06   3.92896E-02
    11   8.49021E+06   6.13686E-02
    12   9.26204E+06   9.08074E-02
    13   1.00339E+07   0.12819    
    14   1.08057E+07   0.17364    
    15   1.15776E+07   0.22679    
    16   1.23494E+07   0.28676    
    17   1.31212E+07   0.35227    
    18   1.38931E+07   0.42171    
    19   1.46649E+07   0.49327    
    20   1.54367E+07   0.56510    
    21   1.62086E+07   0.63543    
    22   1.69804E+07   0.70267    
    23   1.77522E+07   0.76546    
    24   1.85241E+07   0.82280    
    25   1.92959E+07   0.87400    
    26   2.00678E+07   0.91868    
    27   2.08396E+07   0.95678    
    28   2.16114E+07   0.98848    
    29   2.23833E+07    1.0142    
    30   2.31551E+07    1.0344    
    31   2.39269E+07    1.0497    
    32   2.46988E+07    1.0608    
    33   2.54706E+07    1.0684    
    34   2.62424E+07    1.0732    
    35   2.70143E+07    1.0756    
    36   2.77861E+07    1.0763    
    37   2.85580E+07    1.0758    
    38   2.93298E+07    1.0743    
    39   3.01016E+07    1.0722    
    40   3.08735E+07    1.0698    
    41   3.15360E+07    1.0677    
     1   3.23078E+07    1.0652    
     2   3.30797E+07    1.0628    
     3   3.38515E+07    1.0605    
     4   3.46233E+07    1.0581    
     5   3.53952E+07    1.0556    
     6   3.61670E+07    1.0522    
     7   3.69389E+07    1.0473    
     8   3.77107E+07    1.0399    
     9   3.84825E+07    1.0286    
    10   3.92544E+07    1.0124    
    11   4.00262E+07   0.98993    
    12   4.07980E+07   0.96027    
    13   4.15699E+07   0.92282    
    14   4.23417E+07   0.87743    
    15   4.31135E+07   0.82447    
    16   4.38854E+07   0.76478    
    17   4.46572E+07   0.69965    
    18   4.54290E+07   0.63066    
    19   4.62009E+07   0.55961    
    20   4.69727E+07   0.48833    
    21   4.77446E+07   0.41861    
    22   4.85164E+07   0.35202    
    23   4.92882E+07   0.28989    
    24   5.00601E+07   0.23323    
    25   5.08319E+07   0.18274    
    26   5.16037E+07   0.13877    
    27   5.23756E+07   0.10138    
    28   5.31474E+07   7.03988E-02
    29   5.39192E+07   4.54264E-02
    30   5.46911E+07   2.59358E-02
    31   5.54629E+07   1.13026E-02
    32   5.62348E+07   8.57731E-04
    33   5.70066E+07  -6.07324E-03
    34   5.77784E+07  -1.01382E-02
    35   5.85503E+07  -1.19361E-02
    36   5.93221E+07  -1.20017E-02
    37   6.00939E+07  -1.07983E-02
    38   6.08658E+07  -8.71576E-03
    39   6.16376E+07  -6.07234E-03
    40   6.24094E+07  -3.12061E-03
    41   6.30720E+07  -4.92130E-04
