  STEP   TOTAL TIME             LOCATION OF OBSERVATION POINTS (K,I,J)
                      1  16  16
     1    56.250        90.234    
     2    112.50        92.536    
     3    168.75        94.386    
     4    225.00        95.774    
     5    281.25        96.820    
     6    337.50        97.613    
     7    393.75        98.216    
     8    450.00        98.677    
     9    506.25        99.030    
    10    562.50        99.301    
    11    618.75        99.511    
    12    675.00        99.672    
    13    731.25        99.796    
    14    787.50        99.892    
    15    843.75        99.926    
    16    900.00        99.939    
    17    912.50        99.943    
     1    968.75        99.795    
     2    1025.0        99.470    
     3    1081.2        98.918    
     4    1137.5        97.075    
     5    1193.8        93.766    
     6    1250.0        89.541    
     7    1306.2        84.786    
     8    1362.5        79.771    
     9    1418.8        74.681    
    10    1475.0        69.640    
    11    1531.2        64.732    
    12    1587.5        60.010    
    13    1643.8        55.506    
    14    1700.0        51.237    
    15    1756.2        47.212    
    16    1812.5        43.432    
    17    1868.8        39.891    
    18    1925.0        36.583    
    19    1981.2        33.497    
    20    2037.5        30.622    
    21    2093.8        27.949    
    22    2150.0        25.468    
    23    2206.2        23.168    
    24    2262.5        21.042    
    25    2318.8        19.078    
    26    2375.0        17.261    
    27    2431.2        15.582    
    28    2487.5        14.034    
    29    2543.8        12.610    
    30    2600.0        11.307    
    31    2656.2        10.116    
    32    2712.5        9.0327    
    33    2768.8        8.0489    
    34    2825.0        7.1579    
    35    2881.2        6.3529    
    36    2937.5        5.6266    
    37    2993.8        4.9727    
    38    3050.0        4.3847    
    39    3106.2        3.8567    
    40    3162.5        3.3835    
    41    3218.8        2.9600    
    42    3275.0        2.5824    
    43    3331.2        2.2479    
    44    3387.5        1.9532    
    45    3443.8        1.6942    
    46    3500.0        1.4639    
    47    3556.2        1.2603    
    48    3612.5        1.0797    
    49    3650.0       0.96104    
