  STEP   TOTAL TIME             LOCATION OF OBSERVATION POINTS (K,I,J)
                      1  16  16
     1    0.0000        0.0000    
     2    36.500        60.595    
     3    73.000        81.157    
     4    109.50        88.740    
     5    146.00        92.019    
     6    182.50        93.781    
     7    219.00        94.941    
     8    255.50        95.813    
     9    292.00        96.512    
    10    328.50        97.090    
    11    365.00        97.573    
    12    401.50        97.979    
    13    438.00        98.322    
    14    474.50        98.612    
    15    511.00        98.857    
    16    547.50        99.065    
    17    584.00        99.242    
    18    620.50        99.391    
    19    657.00        99.518    
    20    693.50        99.626    
    21    730.00        99.718    
    22    766.50        99.796    
    23    803.00        99.862    
    24    839.50        99.915    
    25    876.00        99.939    
    26    912.50        99.951    
     1    949.00        99.872    
     2    985.50        99.715    
     3    1022.0        99.463    
     4    1058.5        99.101    
     5    1095.0        98.503    
     6    1131.5        97.013    
     7    1168.0        94.873    
     8    1204.5        92.273    
     9    1241.0        89.355    
    10    1277.5        86.228    
    11    1314.0        82.974    
    12    1350.5        79.655    
    13    1387.0        76.320    
    14    1423.5        73.003    
    15    1460.0        69.731    
    16    1496.5        66.523    
    17    1533.0        63.393    
    18    1569.5        60.352    
    19    1606.0        57.405    
    20    1642.5        54.557    
    21    1679.0        51.811    
    22    1715.5        49.169    
    23    1752.0        46.629    
    24    1788.5        44.191    
    25    1825.0        41.855    
    26    1861.5        39.618    
    27    1898.0        37.477    
    28    1934.5        35.429    
    29    1971.0        33.473    
    30    2007.5        31.603    
    31    2044.0        29.819    
    32    2080.5        28.117    
    33    2117.0        26.493    
    34    2153.5        24.947    
    35    2190.0        23.474    
    36    2226.5        22.072    
    37    2263.0        20.743    
    38    2299.5        19.478    
    39    2336.0        18.274    
    40    2372.5        17.130    
    41    2409.0        16.041    
    42    2445.5        15.007    
    43    2482.0        14.027    
    44    2518.5        13.098    
    45    2555.0        12.220    
    46    2591.5        11.389    
    47    2628.0        10.606    
    48    2664.5        9.8675    
    49    2701.0        9.1719    
    50    2737.5        8.5174    
    51    2774.0        7.9022    
    52    2810.5        7.3243    
    53    2847.0        6.7820    
    54    2883.5        6.2738    
    55    2920.0        5.7979    
    56    2956.5        5.3529    
    57    2993.0        4.9372    
    58    3029.5        4.5494    
    59    3066.0        4.1882    
    60    3102.5        3.8520    
    61    3139.0        3.5402    
    62    3175.5        3.2522    
    63    3212.0        2.9873    
    64    3248.5        2.7437    
    65    3285.0        2.5199    
    66    3321.5        2.3139    
    67    3358.0        2.1242    
    68    3394.5        1.9493    
    69    3431.0        1.7876    
    70    3467.5        1.6354    
    71    3504.0        1.4932    
    72    3540.5        1.3594    
    73    3577.0        1.2346    
    74    3613.5        1.1196    
    75    3650.0        1.0145    
