  STEP   TOTAL TIME             LOCATION OF OBSERVATION POINTS (K,I,J)
                      1  16  16
     1    10.000        14.847    
     2    20.000        27.246    
     3    30.000        37.604    
     4    40.000        46.324    
     5    50.000        53.609    
     6    60.000        59.716    
     7    70.000        64.820    
     8    80.000        69.205    
     9    90.000        72.870    
    10    100.00        75.935    
    11    110.00        78.498    
    12    120.00        80.765    
    13    130.00        82.662    
    14    140.00        84.248    
    15    150.00        85.575    
    16    160.00        86.768    
    17    170.00        87.768    
    18    180.00        88.604    
    19    190.00        89.305    
    20    200.00        90.092    
    21    210.00        90.750    
    22    220.00        91.300    
    23    230.00        91.760    
    24    240.00        92.433    
    25    250.00        92.993    
    26    260.00        93.458    
    27    270.00        93.844    
    28    280.00        94.164    
    29    290.00        94.430    
    30    300.00        94.874    
    31    310.00        95.240    
    32    320.00        95.543    
    33    330.00        95.792    
    34    340.00        95.998    
    35    350.00        96.167    
    36    360.00        96.540    
    37    370.00        96.846    
    38    380.00        97.098    
    39    390.00        97.303    
    40    400.00        97.607    
    41    410.00        97.855    
    42    420.00        98.056    
    43    430.00        98.219    
    44    440.00        98.350    
    45    450.00        98.454    
    46    460.00        98.535    
    47    470.00        98.598    
    48    480.00        98.646    
    49    490.00        98.682    
    50    500.00        98.708    
    51    510.00        98.726    
    52    520.00        98.804    
    53    530.00        98.867    
    54    540.00        98.916    
    55    550.00        98.955    
    56    560.00        99.045    
    57    570.00        99.117    
    58    580.00        99.174    
    59    590.00        99.219    
    60    600.00        99.253    
    61    610.00        99.279    
    62    620.00        99.298    
    63    630.00        99.311    
    64    640.00        99.319    
    65    650.00        99.323    
    66    660.00        99.324    
    67    670.00        99.322    
    68    680.00        99.361    
    69    690.00        99.392    
    70    700.00        99.414    
    71    710.00        99.430    
    72    720.00        99.479    
    73    730.00        99.517    
    74    740.00        99.546    
    75    750.00        99.567    
    76    760.00        99.582    
    77    770.00        99.593    
    78    780.00        99.598    
    79    790.00        99.601    
    80    800.00        99.601    
    81    810.00        99.598    
    82    820.00        99.594    
    83    830.00        99.588    
    84    840.00        99.606    
    85    850.00        99.619    
    86    860.00        99.627    
    87    870.00        99.633    
    88    880.00        99.659    
    89    890.00        99.679    
    90    900.00        99.694    
    91    910.00        99.704    
    92    912.50        99.707    
     1    922.50        99.662    
     2    932.50        99.617    
     3    942.50        99.570    
     4    952.50        99.504    
     5    962.50        98.914    
     6    972.50        98.843    
     7    982.50        98.771    
     8    992.50        98.681    
     9    1002.5        98.049    
    10    1012.5        97.951    
    11    1022.5        97.853    
    12    1032.5        97.754    
    13    1042.5        97.352    
    14    1052.5        97.257    
    15    1062.5        97.161    
    16    1072.5        97.064    
    17    1082.5        96.966    
    18    1092.5        96.868    
    19    1102.5        96.768    
    20    1112.5        96.643    
    21    1122.5        95.471    
    22    1132.5        95.348    
    23    1142.5        95.224    
    24    1152.5        94.933    
    25    1162.5        93.770    
    26    1172.5        93.446    
    27    1182.5        93.128    
    28    1192.5        92.816    
    29    1202.5        92.077    
    30    1212.5        91.784    
    31    1222.5        91.495    
    32    1232.5        91.212    
    33    1242.5        90.934    
    34    1252.5        90.660    
    35    1262.5        90.390    
    36    1272.5        90.002    
    37    1282.5        87.035    
    38    1292.5        86.622    
    39    1302.5        86.219    
    40    1312.5        85.743    
    41    1322.5        83.037    
    42    1332.5        82.496    
    43    1342.5        81.967    
    44    1352.5        81.449    
    45    1362.5        78.581    
    46    1372.5        78.131    
    47    1382.5        77.690    
    48    1392.5        77.258    
    49    1402.5        76.835    
    50    1412.5        76.421    
    51    1422.5        76.015    
    52    1432.5        75.618    
    53    1442.5        76.533    
    54    1452.5        75.930    
    55    1462.5        75.342    
    56    1472.5        74.767    
    57    1482.5        68.430    
    58    1492.5        67.978    
    59    1502.5        67.536    
    60    1512.5        67.103    
    61    1522.5        61.813    
    62    1532.5        61.490    
    63    1542.5        61.167    
    64    1552.5        60.849    
    65    1562.5        60.536    
    66    1572.5        60.229    
    67    1582.5        59.926    
    68    1592.5        59.628    
    69    1602.5        53.838    
    70    1612.5        53.646    
    71    1622.5        53.457    
    72    1632.5        53.270    
    73    1642.5        49.931    
    74    1652.5        49.801    
    75    1662.5        49.672    
    76    1672.5        49.543    
    77    1682.5        47.933    
    78    1692.5        47.838    
    79    1702.5        47.742    
    80    1712.5        47.582    
    81    1722.5        47.423    
    82    1732.5        47.265    
    83    1742.5        47.108    
    84    1752.5        46.951    
    85    1762.5        45.109    
    86    1772.5        44.976    
    87    1782.5        44.731    
    88    1792.5        44.490    
    89    1802.5        43.482    
    90    1812.5        43.241    
    91    1822.5        43.003    
    92    1832.5        42.769    
    93    1842.5        42.538    
    94    1852.5        42.310    
    95    1862.5        41.263    
    96    1872.5        40.994    
    97    1882.5        40.731    
    98    1892.5        40.472    
    99    1902.5        40.134    
   100    1912.5        39.803    
   101    1922.5        39.582    
   102    1932.5        40.086    
   103    1942.5        39.695    
   104    1952.5        39.311    
   105    1962.5        38.935    
   106    1972.5        38.567    
   107    1982.5        38.206    
   108    1992.5        38.699    
   109    2002.5        31.260    
   110    2012.5        33.712    
   111    2022.5        33.317    
   112    2032.5        32.930    
   113    2042.5        32.530    
   114    2052.5        32.139    
   115    2062.5        28.792    
   116    2072.5        28.464    
   117    2082.5        28.144    
   118    2092.5        27.831    
   119    2102.5        19.914    
   120    2112.5        19.759    
   121    2122.5        19.607    
   122    2132.5        19.459    
   123    2142.5        21.790    
   124    2152.5        20.178    
   125    2162.5        20.005    
   126    2172.5        19.836    
   127    2182.5        19.670    
   128    2192.5        19.489    
   129    2202.5        17.146    
   130    2212.5        17.021    
   131    2222.5        14.887    
   132    2232.5        14.804    
   133    2242.5        14.721    
   134    2252.5        14.640    
   135    2262.5        14.560    
   136    2272.5        15.101    
   137    2282.5        14.995    
   138    2292.5        14.850    
   139    2302.5        14.718    
   140    2312.5        14.588    
   141    2322.5        14.462    
   142    2332.5        14.340    
   143    2342.5        12.994    
   144    2352.5        12.895    
   145    2362.5        10.631    
   146    2372.5        10.563    
   147    2382.5        10.497    
   148    2392.5        11.140    
   149    2402.5        11.050    
   150    2412.5        9.2469    
   151    2422.5        9.1947    
   152    2432.5        9.1433    
   153    2442.5        9.0927    
   154    2452.5        9.0336    
   155    2462.5        8.9754    
   156    2472.5        8.7649    
   157    2482.5        8.7024    
   158    2492.5        8.6411    
   159    2502.5        8.5809    
   160    2512.5        8.4789    
   161    2522.5        7.3170    
   162    2532.5        7.2784    
   163    2542.5        7.2404    
   164    2552.5        6.6931    
   165    2562.5        7.3241    
   166    2572.5        7.2736    
   167    2582.5        7.2237    
   168    2592.5        7.1746    
   169    2602.5        7.1225    
   170    2612.5        6.2326    
   171    2622.5        6.2002    
   172    2632.5        6.1683    
   173    2642.5        6.1321    
   174    2652.5        5.4475    
   175    2662.5        5.4224    
   176    2672.5        6.3532    
   177    2682.5        6.3015    
   178    2692.5        6.2507    
   179    2702.5        5.6820    
   180    2712.5        5.6363    
   181    2722.5        5.5913    
   182    2732.5        5.5472    
   183    2742.5        5.5039    
   184    2752.5        4.9282    
   185    2762.5        4.8953    
   186    2772.5        4.8629    
   187    2782.5        4.1475    
   188    2792.5        4.1331    
   189    2802.5        3.9476    
   190    2812.5        3.9312    
   191    2822.5        3.9125    
   192    2832.5        3.8941    
   193    2842.5        3.5705    
   194    2852.5        3.6284    
   195    2862.5        3.6120    
   196    2872.5        3.5958    
   197    2882.5        3.5798    
   198    2892.5        3.5640    
   199    2902.5        3.8390    
   200    2912.5        3.8735    
   201    2922.5        3.8403    
   202    2932.5        3.8079    
   203    2942.5        3.7770    
   204    2952.5        3.7467    
   205    2962.5        3.1524    
   206    2972.5        2.9466    
   207    2982.5        2.6532    
   208    2992.5        2.6416    
   209    3002.5        2.6301    
   210    3012.5        2.6188    
   211    3022.5        2.6076    
   212    3032.5        2.5966    
   213    3042.5        2.5359    
   214    3052.5        2.5208    
   215    3062.5        2.5061    
   216    3072.5        2.4916    
   217    3082.5        2.4773    
   218    3092.5        2.4633    
   219    3102.5        2.4495    
   220    3112.5        2.4359    
   221    3122.5        2.3126    
   222    3132.5        2.2483    
   223    3142.5        2.2329    
   224    3152.5        2.1042    
   225    3162.5        2.0883    
   226    3172.5        2.0725    
   227    3182.5        2.0570    
   228    3192.5        2.0418    
   229    3202.5        2.0270    
   230    3212.5        2.0526    
   231    3222.5        2.0377    
   232    3232.5        1.8681    
   233    3242.5        1.8566    
   234    3252.5        1.8454    
   235    3262.5        1.8654    
   236    3272.5        1.8521    
   237    3282.5        1.6736    
   238    3292.5        1.6641    
   239    3302.5        1.6539    
   240    3312.5        1.6456    
   241    3322.5        1.6374    
   242    3332.5        1.6273    
   243    3342.5        1.5390    
   244    3352.5        1.6343    
   245    3362.5        1.6218    
   246    3372.5        1.6094    
   247    3382.5        1.3903    
   248    3392.5        1.3806    
   249    3402.5        1.3712    
   250    3412.5        1.3619    
   251    3422.5        1.3522    
   252    3432.5        1.3427    
   253    3442.5        1.3333    
   254    3452.5        1.3242    
   255    3462.5        1.3152    
   256    3472.5        1.3064    
   257    3482.5        1.2978    
   258    3492.5        1.1129    
   259    3502.5        1.0492    
   260    3512.5        1.1385    
   261    3522.5        1.1312    
   262    3532.5        1.1240    
   263    3542.5        1.1170    
   264    3552.5        1.1101    
   265    3562.5        1.1033    
   266    3572.5        1.0959    
   267    3582.5        1.0885    
   268    3592.5        1.0888    
   269    3602.5        1.0807    
   270    3612.5        1.0727    
   271    3622.5       0.99894    
   272    3632.5       0.99182    
   273    3642.5       0.98484    
   274    3650.0       0.86007    
